Wavelength	alpha	U
250	1804000	0.26
260	1930000	0.28
270	2139000	0.27
280	2332000	0.28
290	2302000	0.18
300	1797000	0.19
310	1469000	0.2
320	1289000	0.25
330	1178000	0.32
340	1093000	0.3
350	1044000	0.43
360	1017000	0.66
370	726900	1.1
380	325400	1.7
390	162100	2.4
400	102500	3
410	73950	3.7
420	52940	4.3
430	40230	5
440	31990	5.5
450	26630	6.1
460	21610	6.8
470	18780	7.5
480	15660	7.8
490	13800	8
500	12200	8.3
510	10800	8.9
520	9553	9.3
530	8252	11
540	6957	12
550	6406	11
560	5958	11
570	5235	10
580	4744	10
590	4276	11
600	3879	11
610	3555	12
620	3407	12
630	3245	13
640	2885	13
650	2793	13
660	2591	13
670	2402	13
680	2226	12
690	2061	12
700	1907	11
710	1763	11
720	1629	10
730	1503	9.8
740	1386	9.3
750	1276	8.9
760	1173	8.4
770	1078	7.9
780	988.2	7.4
790	904.9	7
800	827.1	6.5
810	754.6	6
820	687.1	5.5
830	624.3	5.1
840	565.9	4.6
850	511.6	4.1
860	461.2	3.7
870	414.5	3.2
880	371.3	2.8
890	331.3	2.3
900	294.5	1.9
910	260.5	1.5
920	229.3	1.2
930	199.4	1
940	174.6	0.98
950	150.7	1
960	128.6	1.1
970	108.9	1.2
980	91.47	1.3
990	75.7	1.4
1000	61.6	1.4
1010	49.29	1.4
1020	38.73	1.5
1030	29.34	1.6
1040	21.7	1.8
1050	15.61	1.9
1060	10.96	2
1070	7.965	2.2
1080	6.07	2.2
1090	4.585	2.3
1100	3.452	2.5
1110	2.594	2.8
1120	1.915	3.2
1130	1.377	4.1
1140	0.9503	5.8
1150	0.6215	7.8
1160	0.3713	8.8
1170	0.1896	10
1180	0.05917	11
1190	0.02445	12
1200	0.01456	11
1210	0.008398	12
1220	0.004938	13
1230	0.002772	17
1240	0.001451	22
1250	0.0005911	22
1260	0.0002329	20
1270	0.0001258	18
1280	0.00007391	17
1290	0.00004364	18
1300	0.00002632	18
1310	0.00001521	20
1320	0.000008301	24
1330	0.000003972	28
1340	0.0000017	33
1350	9.707E-07	36
1360	5.813E-07	38
1370	0.000000358	42
1380	2.401E-07	50
1390	1.571E-07	58
1400	9.36E-08	75
1410	5.385E-08	88
1420	3.796E-08	120
1430	1.791E-08	140
1440	1.203E-08	170
1450	9.447E-09	180